File: FeXAFS_REL_Map1_spot4_V_Fe_Ca_Sr_002.dat
# XDI/1.0  GSE/1.0
# Beamline.name:  13-ID-E, GSECARS
# Monochromator.name:  Si(111), LN2 Cooled
# Monochromator.dspacing:  3.13477
# Facility.name: APS
# Facility.xray_source: 3.6 cm undulator
# Detectors.i0:  20cm ion chamber, He
# Detectors.ifluor:  Si SDD Vortex ME-4, 4 elements
# Detectors.ifluor_electronics:  Quantum Xspress3 3.1.10
# Column.1: energy eV
# Column.2: mufluor
# Column.3: i0
# Column.4: ifluor (corrected for deadtime)
# Column.5: ifluor_raw (not corrected)
# Column.7: itrans
# Column.8: irefer
# Scan.start_time: 2015-03-26 13:01:58
# ///
# summed fe_ka fluorescence data from FeXAFS_REL_Map1_spot4_V_Fe_Ca_Sr.002
# Dead-time correction applied
#---------------------------------
#        energy         mufluor         i0          fluor_dtc        fluor_raw        counttime        itrans         irefer
      7012.005      0.03301687     241406.000       7970.47        7966.00          1.000         16.000        -88.000
      7032.009      0.04387182     286449.000      12567       12557.00          1.000         16.000        -87.000
      7052.001      0.06439323     281226.000      18109.1       18090.00          1.000         16.000        -99.000
      7072.008      0.100711     276549.000      27851.6       27810.00          1.000         15.000        -78.000
      7092.006      0.188562     275999.000      52042.8       51909.00          1.000         16.000        -88.000
      7102.404      0.311562     275969.000      85981.4       85625.00          1.000         16.000        -88.000
      7103.210      0.326896     275049.000      89912.3       89526.00          1.000         16.000        -89.000
      7104.002      0.343446     274747.000      94360.7       93935.00          1.000         16.000        -89.000
      7104.805      0.363726     274520.000      99850.1       99376.00          1.000         16.000        -90.000
      7105.605      0.390572     274266.000     107121      106577.00          1.000         16.000        -91.000
      7106.398      0.411581     274106.000     112817      112213.00          1.000         16.000        -80.000
      7107.215      0.439029     274042.000     120312      119629.00          1.000         16.000        -79.000
      7108.008      0.473302     273773.000     129577      128789.00          1.000         16.000        -80.000
      7108.805      0.517105     273718.000     141541      140597.00          1.000         16.000        -79.000
      7109.603      0.578856     273451.000     158289      157112.00          1.000         16.000        -79.000
      7110.400      0.678486     273296.000     185427      183822.00          1.000         16.000        -79.000
      7111.208      0.904421     273347.000     247221      244389.00          1.000         16.000        -79.000
      7112.003      1.39706     272811.000     381132      374410.00          1.000         16.000        -79.000
      7112.801      1.70252     272906.000     464629      454665.00          1.000         16.000        -79.000
      7113.605      2.00264     272853.000     546426      532652.00          1.000         16.000        -79.000
      7114.407      1.75332     272762.000     478239      467667.00          1.000         16.000        -78.000
      7115.206      1.68405     272557.000     458999      449251.00          1.000         16.000        -78.000
      7116.011      1.77549     272526.000     483868      472997.00          1.000         17.000        -75.000
      7116.817      1.92962     272347.000     525528      512724.00          1.000         16.000        -78.000
      7117.610      2.10061     271995.000     571356      556206.00          1.000         16.000        -78.000
      7118.406      2.41317     271992.000     656363      636377.00          1.000         16.000        -76.000
      7119.212      2.9265     271821.000     795483      766098.00          1.000         16.000        -76.000
      7120.002      3.71494     271468.000    1.00849e+06      961033.00          1.000         16.000        -76.000
      7120.808      4.81415     271319.000    1.30617e+06     1226219.00          1.000         17.000        -76.000
      7121.602      6.12938     271261.000    1.66266e+06     1531998.00          1.000         16.000        -76.000
      7122.399      7.34147     270894.000    1.98876e+06     1800690.00          1.000         17.000        -77.000
      7123.203      8.2716     270848.000    2.24035e+06     2000305.00          1.000         16.000        -76.000
      7124.017      8.99646     270366.000    2.43234e+06     2148326.00          1.000         16.000        -78.000
      7124.814      9.67539     270010.000    2.61245e+06     2283772.00          1.000         17.000        -77.000
      7125.599     10.2647     270011.000    2.77158e+06     2400039.00          1.000         16.000        -90.000
      7126.407     10.7957     269510.000    2.90956e+06     2499620.00          1.000         17.000        -87.000
      7127.202     11.1488     269340.000    3.00281e+06     2564739.00          1.000         17.000        -88.000
      7128.000     11.4332     268675.000    3.07182e+06     2613816.00          1.000         17.000        -87.000
      7128.812     11.5638     269027.000    3.11097e+06     2639787.00          1.000         16.000        -87.000
      7129.611     11.6089     270504.000    3.14026e+06     2659991.00          1.000         17.000        -88.000
      7130.406     11.5921     270508.000    3.13574e+06     2656282.00          1.000         16.000        -87.000
      7131.209     11.6205     269976.000    3.13726e+06     2657985.00          1.000         17.000        -88.000
      7132.011     11.61     270227.000    3.13734e+06     2658092.00          1.000         16.000        -87.000
      7132.814     11.5749     269881.000    3.12385e+06     2648808.00          1.000         17.000        -90.000
      7133.614     11.5328     269778.000    3.11129e+06     2640044.00          1.000         16.000        -89.000
      7134.400     11.5038     270035.000    3.10642e+06     2637501.00          1.000         16.000        -90.000
      7135.207     11.4748     270384.000    3.1026e+06     2634504.00          1.000         16.000        -89.000
      7136.011     11.4369     270236.000    3.09067e+06     2626661.00          1.000         17.000        -91.000
      7136.818     11.362     270565.000    3.07417e+06     2614445.00          1.000         17.000        -91.000
      7146.021     10.8522     271288.000    2.94407e+06     2523073.00          1.000         16.000        -79.000
      7158.016     10.2106     270340.000    2.76033e+06     2392159.00          1.000         16.000        -90.000
      7170.010     10.7113     267820.000    2.86871e+06     2469829.00          1.000         16.000        -90.000
      7182.009     11.0358     266541.000    2.94149e+06     2521873.00          1.000         16.000        -90.000
      7194.006     11.0956     264440.000    2.93412e+06     2516881.00          1.000         16.000        -90.000
      7205.998     11.0555     263418.000    2.91221e+06     2501208.00          1.000         15.000        -90.000
      7217.988     11.0009     263477.000    2.89848e+06     2491980.00          1.000         16.000        -89.000
      7230.000     11.0468     261793.000    2.89198e+06     2486895.00          1.000         16.000        -89.000
      7241.991     11.1334     257522.000    2.8671e+06     2469021.00          1.000         16.000        -89.000
      7254.004     11.1857     257875.000    2.8845e+06     2481700.00          1.000         15.000        -89.000
      7266.004     11.4802     232489.000    2.66903e+06     2326370.00          1.000         16.000        -77.000
      7277.979     11.4258     257517.000    2.94234e+06     2523274.00          1.000         16.000        -77.000
      7289.986     11.4231     257001.000    2.93574e+06     2518109.00          1.000         16.000        -78.000
      7301.989     11.4012     256478.000    2.92415e+06     2509443.00          1.000         17.000        -85.000
      7313.984     11.4433     253471.000    2.90054e+06     2493145.00          1.000         16.000        -83.000
      7325.975     11.4933     253009.000    2.90791e+06     2497944.00          1.000         16.000        -80.000
      7337.980     11.5487     251904.000    2.90916e+06     2498659.00          1.000         17.000        -81.000
      7349.986     11.5686     252943.000    2.92619e+06     2511029.00          1.000         16.000        -81.000
      7361.981     11.6131     250548.000    2.90965e+06     2499024.00          1.000         17.000        -81.000