File: SrXAFS_REL_Map1_spot14_Sr_004.dat
# XDI/1.0  GSE/1.0
# Beamline.name:  13-ID-E, GSECARS
# Monochromator.name:  Si(111), LN2 Cooled
# Monochromator.dspacing:  3.13477
# Facility.name: APS
# Facility.xray_source: 3.6 cm undulator
# Detectors.i0:  20cm ion chamber, He
# Detectors.ifluor:  Si SDD Vortex ME-4, 4 elements
# Detectors.ifluor_electronics:  Quantum Xspress3 3.1.10
# Column.1: energy eV
# Column.2: mufluor
# Column.3: i0
# Column.4: ifluor (corrected for deadtime)
# Column.5: ifluor_raw (not corrected)
# Column.7: itrans
# Column.8: irefer
# Scan.start_time: 2015-03-26 14:20:19
# ///
# summed sr_ka fluorescence data from SrXAFS_REL_Map1_spot14_Sr.004
# Dead-time correction applied
#---------------------------------
#        energy         mufluor         i0          fluor_dtc        fluor_raw        counttime        itrans         irefer
     15905.009      0.09369660       9798.000        918.039         917.00          1.500         21.000       -158.500
     15925.005      0.08242926      20415.000       1682.79        1679.00          1.500         22.000       -159.500
     15945.002      0.08515639      19750.000       1681.84        1678.00          1.500         20.000       -142.500
     15965.015      0.08490224      19953.000       1694.05        1690.00          1.500         19.000       -140.500
     15985.011      0.08046707      20243.000       1628.89        1625.00          1.500         21.000       -141.500
     16005.006      0.07831433      19505.000       1527.52        1524.00          1.500         20.000       -139.500
     16025.034      0.07627671      18963.000       1446.44        1443.00          1.500         21.000       -141.500
     16045.044      0.07992554      18852.000       1506.76        1503.00          1.500         21.000       -142.500
     16064.983      0.07450957      19771.000       1473.13        1469.00          1.500         21.000       -141.500
     16085.042      0.08145304      20654.000       1682.33        1678.00          1.500         21.000       -140.500
     16095.402      0.08388922      27311.000       2291.1        2285.00          2.000         27.000       -190.000
     16096.250      0.08459460      27374.000       2315.69        2310.00          2.000         28.000       -192.000
     16097.011      0.08929619      27346.000       2441.89        2436.00          2.000         29.000       -217.000
     16097.842      0.09074194      27380.000       2484.51        2478.00          2.000         29.000       -216.000
     16098.604      0.09062084      27462.000       2488.63        2482.00          2.000         28.000       -216.000
     16099.366      0.09383275      27517.000       2582        2575.00          2.000         28.000       -214.000
     16100.197      0.09700964      27471.000       2664.95        2658.00          2.000         28.000       -212.000
     16101.011      0.105724      27368.000       2893.45        2886.00          2.000         28.000       -220.000
     16101.808      0.107774      27290.000       2941.14        2934.00          2.000         29.000       -223.000
     16102.605      0.11374      27330.000       3108.51        3101.00          2.000         30.000       -220.000
     16103.384      0.121216      27397.000       3320.96        3312.00          2.000         29.000       -222.000
     16104.198      0.137398      27292.000       3749.85        3739.00          2.000         29.000       -215.000
     16105.013      0.161712      27666.000       4473.93        4461.00          2.000         29.000       -214.000
     16105.775      0.193541      27637.000       5348.89        5332.00          2.000         29.000       -193.000
     16106.607      0.224652      27351.000       6144.45        6126.00          2.000         27.000       -191.000
     16107.404      0.269229      27399.000       7376.6        7356.00          2.000         28.000       -191.000
     16108.167      0.301438      27456.000       8276.27        8255.00          2.000         29.000       -188.000
     16109.034      0.351133      27352.000       9604.19        9580.00          2.000         29.000       -188.000
     16109.831      0.403327      27366.000      11037.4       11008.00          2.000         28.000       -191.000
     16110.594      0.46133      27352.000      12618.3       12584.00          2.000         29.000       -188.000
     16111.392      0.500217      27302.000      13656.9       13620.00          2.000         29.000       -188.000
     16112.207      0.537938      27104.000      14580.3       14541.00          2.000         30.000       -188.000
     16113.005      0.580516      27091.000      15726.7       15685.00          2.000         30.000       -203.000
     16113.820      0.61983      27075.000      16781.9       16737.00          2.000         29.000       -205.000
     16114.600      0.638779      27307.000      17443.1       17395.00          2.000         29.000       -202.000
     16115.398      0.667389      27191.000      18147       18097.00          2.000         28.000       -187.000
     16116.179      0.653057      26994.000      17628.6       17578.00          2.000         27.000       -185.000
     16117.047      0.675301      27031.000      18254.1       18202.00          2.000         28.000       -187.000
     16117.810      0.601672      26853.000      16156.7       16108.00          2.000         28.000       -188.000
     16118.609      0.60107      26839.000      16132.1       16083.00          2.000         29.000       -188.000
     16119.407      0.636616      26587.000      16925.7       16879.00          2.000         30.000       -188.000
     16120.223      0.622862      26410.000      16449.8       16404.00          2.000         29.000       -189.000
     16120.987      0.599607      26470.000      15871.6       15824.00          2.000         29.000       -187.000
     16121.786      0.562353      26187.000      14726.3       14677.00          2.000         30.000       -191.000
     16122.602      0.528303      26245.000      13865.3       13810.00          2.000         29.000       -190.000
     16123.418      0.520717      26151.000      13617.3       13553.00          2.000         28.000       -190.000
     16124.182      0.555808      25880.000      14384.3       14316.00          2.000         28.000       -189.000
     16125.068      0.577646      25890.000      14955.3       14875.00          2.000         29.000       -190.000
     16125.798      0.56421      25808.000      14561.1       14471.00          2.000         29.000       -186.000
     16126.684      0.569243      25653.000      14602.8       14524.00          2.000         29.000       -190.000
     16127.396      0.543268      25636.000      13927.2       13860.00          2.000         29.000       -188.000
     16128.230      0.48654      25309.000      12313.9       12258.00          2.000         29.000       -185.000
     16129.047      0.466095      25055.000      11678       11629.00          2.000         29.000       -185.000
     16129.812      0.473454      25128.000      11897       11851.00          2.000         29.000       -187.000
     16139.012      0.477346      19189.000       9159.79        9132.00          1.500         22.000       -140.500
     16151.027      0.52712      18806.000       9913.01        9886.00          1.500         22.000       -142.500
     16163.009      0.495092      19079.000       9445.86        9422.00          1.500         22.000       -144.500
     16175.008      0.49162      19266.000       9471.54        9448.00          1.500         22.000       -145.500
     16186.990      0.484141      19456.000       9419.45        9396.00          1.500         22.000       -142.500
     16199.008      0.455179      19628.000       8934.26        8910.00          1.500         22.000       -143.500
     16210.956      0.419523      19664.000       8249.5        8226.00          1.500         22.000       -142.500
     16222.992      0.423058      19539.000       8266.13        8243.00          1.500         23.000       -141.500
     16234.993      0.43047      19130.000       8234.88        8213.00          1.500         23.000       -175.500
     16246.995      0.427478      18738.000       8010.08        7989.00          1.500         22.000       -176.500
     16259.050      0.381358      18469.000       7043.3        7024.00          1.500         22.000       -176.500
     16271.016      0.41818      18496.000       7734.66        7715.00          1.500         23.000       -164.500
     16282.983      0.458064      18702.000       8566.72        8546.00          1.500         23.000       -163.500
     16295.021      0.459286      19173.000       8805.9        8785.00          1.500         22.000       -160.500
     16306.987      0.454036      19530.000       8867.33        8845.00          1.500         22.000       -160.500
     16319.007      0.456562      19958.000       9112.07        9089.00          1.500         22.000       -161.500
     16330.992      0.451794      19849.000       8967.67        8941.00          1.500         23.000       -158.500
     16342.976      0.439703      19607.000       8621.25        8593.00          1.500         22.000       -159.500
     16354.978      0.418684      18838.000       7887.17        7858.00          1.500         22.000       -162.500